PE UV       SUBTECH     SPECTRUM    ASCII       PEDS        4.00        
   -1
PETIT_02.Sample.Raw.asc
20/12/14
13:07:23.00
20/12/14
13:07:23.00
CNRS
Blanc01
300.000000
1
Lambda 850
850L1011221
PerkinElmer UV WinLab 6.0.3.0730 / 1.61.00 Lambda 800

0
0
2
0
0
UV/VIS
1
1
1
RBeamAtt,SBeamAtt,150mm sphere / downward view
0
0
0
0
Fix
 
0
0.2
0
0
0
 
 
 
0
 
0
319.2
0
Front
50
 
S:100 R:100
 
0
0
0
 
0
 
 
 
0
 
 
0
0
0
0
0
 
 
 
 
0
0


#HDR
-1
-1
#GR
nm
A
1.0
0.0
800.000000
-1.000000
501
8
0.012177
-0.020263
#DATA
800.000000	-0.014603
799.000000	-0.012240
798.000000	-0.013051
797.000000	-0.013332
796.000000	-0.011915
795.000000	-0.012827
794.000000	-0.014693
793.000000	-0.012850
792.000000	-0.014238
791.000000	-0.012713
790.000000	-0.013121
789.000000	-0.014203
788.000000	-0.013797
787.000000	-0.012835
786.000000	-0.013153
785.000000	-0.012667
784.000000	-0.013275
783.000000	-0.013339
782.000000	-0.013144
781.000000	-0.014450
780.000000	-0.012940
779.000000	-0.013392
778.000000	-0.012275
777.000000	-0.011954
776.000000	-0.013412
775.000000	-0.012779
774.000000	-0.013576
773.000000	-0.012671
772.000000	-0.012093
771.000000	-0.012232
770.000000	-0.012455
769.000000	-0.012454
768.000000	-0.012730
767.000000	-0.013169
766.000000	-0.013141
765.000000	-0.013357
764.000000	-0.012682
763.000000	-0.013625
762.000000	-0.013060
761.000000	-0.013281
760.000000	-0.014118
759.000000	-0.013306
758.000000	-0.012541
757.000000	-0.012855
756.000000	-0.013400
755.000000	-0.013422
754.000000	-0.013587
753.000000	-0.013139
752.000000	-0.013448
751.000000	-0.013942
750.000000	-0.014048
749.000000	-0.013588
748.000000	-0.012758
747.000000	-0.013089
746.000000	-0.012873
745.000000	-0.013442
744.000000	-0.012384
743.000000	-0.012783
742.000000	-0.012657
741.000000	-0.013211
740.000000	-0.012545
739.000000	-0.013215
738.000000	-0.013652
737.000000	-0.013463
736.000000	-0.013580
735.000000	-0.013439
734.000000	-0.013673
733.000000	-0.012929
732.000000	-0.013544
731.000000	-0.013314
730.000000	-0.014115
729.000000	-0.014003
728.000000	-0.013270
727.000000	-0.013322
726.000000	-0.013311
725.000000	-0.013714
724.000000	-0.013711
723.000000	-0.014046
722.000000	-0.013839
721.000000	-0.014477
720.000000	-0.013801
719.000000	-0.013905
718.000000	-0.014713
717.000000	-0.014035
716.000000	-0.013969
715.000000	-0.014096
714.000000	-0.014138
713.000000	-0.013853
712.000000	-0.014474
711.000000	-0.014172
710.000000	-0.014229
709.000000	-0.014418
708.000000	-0.014449
707.000000	-0.014485
706.000000	-0.014089
705.000000	-0.014190
704.000000	-0.014778
703.000000	-0.014338
702.000000	-0.013873
701.000000	-0.014235
700.000000	-0.014341
699.000000	-0.014289
698.000000	-0.014026
697.000000	-0.014379
696.000000	-0.014478
695.000000	-0.014203
694.000000	-0.014465
693.000000	-0.014249
692.000000	-0.014518
691.000000	-0.015209
690.000000	-0.015097
689.000000	-0.014711
688.000000	-0.014441
687.000000	-0.014376
686.000000	-0.014323
685.000000	-0.014334
684.000000	-0.014429
683.000000	-0.014604
682.000000	-0.014486
681.000000	-0.014545
680.000000	-0.014704
679.000000	-0.014701
678.000000	-0.014607
677.000000	-0.014409
676.000000	-0.014212
675.000000	-0.014238
674.000000	-0.014383
673.000000	-0.014669
672.000000	-0.014748
671.000000	-0.014456
670.000000	-0.014324
669.000000	-0.014302
668.000000	-0.014195
667.000000	-0.014319
666.000000	-0.014363
665.000000	-0.014162
664.000000	-0.014234
663.000000	-0.014233
662.000000	-0.014461
661.000000	-0.014310
660.000000	-0.014082
659.000000	-0.014244
658.000000	-0.014415
657.000000	-0.014367
656.000000	-0.014043
655.000000	-0.014464
654.000000	-0.014566
653.000000	-0.014506
652.000000	-0.014806
651.000000	-0.014364
650.000000	-0.014591
649.000000	-0.014703
648.000000	-0.014328
647.000000	-0.014455
646.000000	-0.014422
645.000000	-0.014491
644.000000	-0.014519
643.000000	-0.014193
642.000000	-0.014403
641.000000	-0.014624
640.000000	-0.014640
639.000000	-0.014413
638.000000	-0.014330
637.000000	-0.014548
636.000000	-0.014816
635.000000	-0.014411
634.000000	-0.014243
633.000000	-0.014386
632.000000	-0.014473
631.000000	-0.014381
630.000000	-0.014434
629.000000	-0.014880
628.000000	-0.015302
627.000000	-0.014740
626.000000	-0.014411
625.000000	-0.014715
624.000000	-0.014608
623.000000	-0.014576
622.000000	-0.014430
621.000000	-0.014859
620.000000	-0.014671
619.000000	-0.014937
618.000000	-0.014509
617.000000	-0.014589
616.000000	-0.014926
615.000000	-0.014591
614.000000	-0.014365
613.000000	-0.014050
612.000000	-0.014359
611.000000	-0.014349
610.000000	-0.014864
609.000000	-0.014418
608.000000	-0.014337
607.000000	-0.014862
606.000000	-0.014518
605.000000	-0.015479
604.000000	-0.014661
603.000000	-0.014549
602.000000	-0.014627
601.000000	-0.014731
600.000000	-0.014812
599.000000	-0.014714
598.000000	-0.014669
597.000000	-0.015023
596.000000	-0.014206
595.000000	-0.014918
594.000000	-0.014176
593.000000	-0.014408
592.000000	-0.014630
591.000000	-0.014496
590.000000	-0.014311
589.000000	-0.014605
588.000000	-0.014610
587.000000	-0.014922
586.000000	-0.014991
585.000000	-0.014550
584.000000	-0.014614
583.000000	-0.015009
582.000000	-0.014686
581.000000	-0.014705
580.000000	-0.014898
579.000000	-0.014342
578.000000	-0.015011
577.000000	-0.014438
576.000000	-0.015190
575.000000	-0.014831
574.000000	-0.014291
573.000000	-0.014690
572.000000	-0.014677
571.000000	-0.014555
570.000000	-0.014651
569.000000	-0.014729
568.000000	-0.014365
567.000000	-0.014518
566.000000	-0.014792
565.000000	-0.014680
564.000000	-0.014326
563.000000	-0.014642
562.000000	-0.014089
561.000000	-0.014315
560.000000	-0.014937
559.000000	-0.013908
558.000000	-0.014237
557.000000	-0.014470
556.000000	-0.014276
555.000000	-0.014222
554.000000	-0.014351
553.000000	-0.014401
552.000000	-0.014257
551.000000	-0.014074
550.000000	-0.014356
549.000000	-0.014221
548.000000	-0.014278
547.000000	-0.013400
546.000000	-0.013950
545.000000	-0.013908
544.000000	-0.014316
543.000000	-0.014105
542.000000	-0.014041
541.000000	-0.014404
540.000000	-0.013984
539.000000	-0.014168
538.000000	-0.014072
537.000000	-0.013891
536.000000	-0.014054
535.000000	-0.014301
534.000000	-0.014072
533.000000	-0.014663
532.000000	-0.014271
531.000000	-0.014325
530.000000	-0.014198
529.000000	-0.014423
528.000000	-0.013934
527.000000	-0.013929
526.000000	-0.014184
525.000000	-0.014120
524.000000	-0.014328
523.000000	-0.014473
522.000000	-0.014879
521.000000	-0.014149
520.000000	-0.014570
519.000000	-0.014077
518.000000	-0.014259
517.000000	-0.014403
516.000000	-0.014523
515.000000	-0.013938
514.000000	-0.014644
513.000000	-0.013941
512.000000	-0.014140
511.000000	-0.014522
510.000000	-0.014123
509.000000	-0.014155
508.000000	-0.014162
507.000000	-0.013868
506.000000	-0.014816
505.000000	-0.014866
504.000000	-0.014291
503.000000	-0.014354
502.000000	-0.014204
501.000000	-0.014142
500.000000	-0.013776
499.000000	-0.013945
498.000000	-0.013955
497.000000	-0.014428
496.000000	-0.014029
495.000000	-0.013965
494.000000	-0.013987
493.000000	-0.013890
492.000000	-0.014093
491.000000	-0.014108
490.000000	-0.013988
489.000000	-0.014020
488.000000	-0.013643
487.000000	-0.013779
486.000000	-0.013605
485.000000	-0.013926
484.000000	-0.014311
483.000000	-0.014013
482.000000	-0.013876
481.000000	-0.013849
480.000000	-0.013750
479.000000	-0.014546
478.000000	-0.014802
477.000000	-0.014393
476.000000	-0.014462
475.000000	-0.014475
474.000000	-0.014720
473.000000	-0.014545
472.000000	-0.014527
471.000000	-0.014243
470.000000	-0.014559
469.000000	-0.014454
468.000000	-0.014492
467.000000	-0.014944
466.000000	-0.014655
465.000000	-0.014721
464.000000	-0.014163
463.000000	-0.014393
462.000000	-0.014522
461.000000	-0.014240
460.000000	-0.014596
459.000000	-0.014443
458.000000	-0.014563
457.000000	-0.014372
456.000000	-0.014354
455.000000	-0.014165
454.000000	-0.014359
453.000000	-0.014448
452.000000	-0.014629
451.000000	-0.014836
450.000000	-0.014764
449.000000	-0.014545
448.000000	-0.015009
447.000000	-0.014460
446.000000	-0.014298
445.000000	-0.014513
444.000000	-0.014478
443.000000	-0.014376
442.000000	-0.014170
441.000000	-0.014113
440.000000	-0.014444
439.000000	-0.014549
438.000000	-0.014226
437.000000	-0.013942
436.000000	-0.014104
435.000000	-0.014542
434.000000	-0.014651
433.000000	-0.014392
432.000000	-0.014574
431.000000	-0.014479
430.000000	-0.014153
429.000000	-0.014180
428.000000	-0.014394
427.000000	-0.014690
426.000000	-0.015173
425.000000	-0.015263
424.000000	-0.014897
423.000000	-0.014658
422.000000	-0.014726
421.000000	-0.015052
420.000000	-0.014875
419.000000	-0.014737
418.000000	-0.014771
417.000000	-0.014992
416.000000	-0.015179
415.000000	-0.015261
414.000000	-0.015239
413.000000	-0.015263
412.000000	-0.015239
411.000000	-0.015043
410.000000	-0.015895
409.000000	-0.016149
408.000000	-0.015630
407.000000	-0.015953
406.000000	-0.015996
405.000000	-0.015785
404.000000	-0.015999
403.000000	-0.016399
402.000000	-0.016294
401.000000	-0.016457
400.000000	-0.016149
399.000000	-0.016132
398.000000	-0.016143
397.000000	-0.016054
396.000000	-0.015457
395.000000	-0.015657
394.000000	-0.015977
393.000000	-0.016124
392.000000	-0.016691
391.000000	-0.016391
390.000000	-0.016219
389.000000	-0.015837
388.000000	-0.015706
387.000000	-0.015973
386.000000	-0.016504
385.000000	-0.016471
384.000000	-0.016401
383.000000	-0.016238
382.000000	-0.016591
381.000000	-0.016667
380.000000	-0.016631
379.000000	-0.017053
378.000000	-0.015294
377.000000	-0.015275
376.000000	-0.016529
375.000000	-0.014294
374.000000	-0.014924
373.000000	-0.014902
372.000000	-0.015393
371.000000	-0.014628
370.000000	-0.016412
369.000000	-0.018037
368.000000	-0.017853
367.000000	-0.017640
366.000000	-0.017153
365.000000	-0.018103
364.000000	-0.017628
363.000000	-0.017727
362.000000	-0.018207
361.000000	-0.017497
360.000000	-0.015982
359.000000	-0.015965
358.000000	-0.017681
357.000000	-0.016473
356.000000	-0.016260
355.000000	-0.017486
354.000000	-0.017456
353.000000	-0.016540
352.000000	-0.016685
351.000000	-0.016780
350.000000	-0.016520
349.000000	-0.019191
348.000000	-0.019358
347.000000	-0.019027
346.000000	-0.017795
345.000000	-0.018349
344.000000	-0.017987
343.000000	-0.018778
342.000000	-0.016594
341.000000	-0.017986
340.000000	-0.020263
339.000000	-0.016768
338.000000	-0.018315
337.000000	-0.018181
336.000000	-0.018020
335.000000	-0.017669
334.000000	-0.018543
333.000000	-0.018026
332.000000	-0.017327
331.000000	-0.016713
330.000000	-0.018139
329.000000	-0.018756
328.000000	-0.019571
327.000000	-0.018646
326.000000	-0.018224
325.000000	-0.015208
324.000000	-0.016135
323.000000	-0.017079
322.000000	-0.014769
321.000000	-0.009213
320.000000	-0.012941
319.000000	-0.013257
318.000000	-0.014738
317.000000	-0.013605
316.000000	-0.011342
315.000000	-0.009381
314.000000	-0.012300
313.000000	-0.007738
312.000000	-0.008332
311.000000	-0.006959
310.000000	-0.004548
309.000000	-0.003130
308.000000	-0.001148
307.000000	-0.001069
306.000000	-0.001209
305.000000	-0.000666
304.000000	0.002058
303.000000	0.004206
302.000000	0.007536
301.000000	0.008768
300.000000	0.012177
