PE UV       SUBTECH     SPECTRUM    ASCII       PEDS        4.00        
   -1
100% or 0 Absorbance Baseline.Correction.Raw.asc
20/12/15
09:10:39.00
20/12/15
09:10:39.00
CNRS

300.000000
1
Lambda 850
850L1011221
PerkinElmer UV WinLab 6.0.3.0730 / 1.61.00 Lambda 800

0
0
2
0
0
UV/VIS
0
1
1
RBeamAtt,SBeamAtt,150mm sphere / downward view
0
0
0
0
Fix
 
0
0.2
0
0
0
 
 
 
0
 
0
319.2
0
Front
50
 
S:100 R:100
 
0
0
0
 
0
 
 
 
0
 
 
0
0
0
0
0
 
 
 
 
0
0


#HDR
-1
-1
#GR
nm
A
1.0
0.0
800.000000
-1.000000
501
8
0.023366
-0.068439
#DATA
800.000000	-0.068439
799.000000	-0.068371
798.000000	-0.067390
797.000000	-0.067931
796.000000	-0.066755
795.000000	-0.065406
794.000000	-0.066267
793.000000	-0.065679
792.000000	-0.066254
791.000000	-0.066499
790.000000	-0.065904
789.000000	-0.065113
788.000000	-0.065302
787.000000	-0.065308
786.000000	-0.063962
785.000000	-0.063778
784.000000	-0.064289
783.000000	-0.063611
782.000000	-0.064296
781.000000	-0.063670
780.000000	-0.062494
779.000000	-0.062150
778.000000	-0.062676
777.000000	-0.062048
776.000000	-0.062409
775.000000	-0.062424
774.000000	-0.061908
773.000000	-0.060822
772.000000	-0.061016
771.000000	-0.060675
770.000000	-0.060427
769.000000	-0.061069
768.000000	-0.060070
767.000000	-0.059823
766.000000	-0.059647
765.000000	-0.059432
764.000000	-0.058851
763.000000	-0.058850
762.000000	-0.058094
761.000000	-0.058040
760.000000	-0.057477
759.000000	-0.057675
758.000000	-0.057088
757.000000	-0.057281
756.000000	-0.056352
755.000000	-0.057576
754.000000	-0.056511
753.000000	-0.055564
752.000000	-0.055655
751.000000	-0.055168
750.000000	-0.055722
749.000000	-0.056422
748.000000	-0.056275
747.000000	-0.055549
746.000000	-0.054907
745.000000	-0.054459
744.000000	-0.053850
743.000000	-0.054167
742.000000	-0.054016
741.000000	-0.053714
740.000000	-0.054290
739.000000	-0.052950
738.000000	-0.053342
737.000000	-0.052770
736.000000	-0.052978
735.000000	-0.052760
734.000000	-0.052799
733.000000	-0.052473
732.000000	-0.051749
731.000000	-0.051807
730.000000	-0.051626
729.000000	-0.051543
728.000000	-0.051703
727.000000	-0.051624
726.000000	-0.051486
725.000000	-0.051261
724.000000	-0.050918
723.000000	-0.050524
722.000000	-0.050543
721.000000	-0.050405
720.000000	-0.050049
719.000000	-0.050015
718.000000	-0.049870
717.000000	-0.049511
716.000000	-0.049580
715.000000	-0.049613
714.000000	-0.049596
713.000000	-0.049259
712.000000	-0.049386
711.000000	-0.049038
710.000000	-0.048789
709.000000	-0.048730
708.000000	-0.048768
707.000000	-0.048554
706.000000	-0.048516
705.000000	-0.048102
704.000000	-0.048139
703.000000	-0.048007
702.000000	-0.047790
701.000000	-0.047554
700.000000	-0.047494
699.000000	-0.047538
698.000000	-0.047607
697.000000	-0.047463
696.000000	-0.047191
695.000000	-0.047194
694.000000	-0.047103
693.000000	-0.046844
692.000000	-0.047026
691.000000	-0.046870
690.000000	-0.046652
689.000000	-0.046368
688.000000	-0.046191
687.000000	-0.045950
686.000000	-0.045621
685.000000	-0.045924
684.000000	-0.045958
683.000000	-0.045610
682.000000	-0.045696
681.000000	-0.045468
680.000000	-0.044943
679.000000	-0.044990
678.000000	-0.045284
677.000000	-0.045273
676.000000	-0.045188
675.000000	-0.045124
674.000000	-0.044780
673.000000	-0.044455
672.000000	-0.044299
671.000000	-0.044239
670.000000	-0.044398
669.000000	-0.044286
668.000000	-0.044287
667.000000	-0.044207
666.000000	-0.044141
665.000000	-0.043936
664.000000	-0.043574
663.000000	-0.043590
662.000000	-0.043699
661.000000	-0.043655
660.000000	-0.043639
659.000000	-0.043723
658.000000	-0.043967
657.000000	-0.043568
656.000000	-0.043263
655.000000	-0.043411
654.000000	-0.043277
653.000000	-0.043167
652.000000	-0.043207
651.000000	-0.042889
650.000000	-0.042770
649.000000	-0.042916
648.000000	-0.042953
647.000000	-0.042823
646.000000	-0.042828
645.000000	-0.042565
644.000000	-0.042577
643.000000	-0.042770
642.000000	-0.042610
641.000000	-0.042322
640.000000	-0.042687
639.000000	-0.042365
638.000000	-0.042080
637.000000	-0.042531
636.000000	-0.042437
635.000000	-0.042033
634.000000	-0.041859
633.000000	-0.042074
632.000000	-0.042083
631.000000	-0.041971
630.000000	-0.042180
629.000000	-0.041803
628.000000	-0.041515
627.000000	-0.041536
626.000000	-0.041490
625.000000	-0.041568
624.000000	-0.041420
623.000000	-0.041236
622.000000	-0.041207
621.000000	-0.041181
620.000000	-0.041359
619.000000	-0.041156
618.000000	-0.041026
617.000000	-0.041029
616.000000	-0.041016
615.000000	-0.040636
614.000000	-0.040759
613.000000	-0.041067
612.000000	-0.041198
611.000000	-0.040954
610.000000	-0.041115
609.000000	-0.040664
608.000000	-0.040933
607.000000	-0.040439
606.000000	-0.040798
605.000000	-0.041129
604.000000	-0.040686
603.000000	-0.040724
602.000000	-0.040353
601.000000	-0.040704
600.000000	-0.040549
599.000000	-0.040635
598.000000	-0.040046
597.000000	-0.039992
596.000000	-0.040117
595.000000	-0.040172
594.000000	-0.040031
593.000000	-0.039902
592.000000	-0.039881
591.000000	-0.040171
590.000000	-0.040055
589.000000	-0.039612
588.000000	-0.039866
587.000000	-0.039815
586.000000	-0.039409
585.000000	-0.039761
584.000000	-0.039835
583.000000	-0.039402
582.000000	-0.039232
581.000000	-0.039231
580.000000	-0.039405
579.000000	-0.039297
578.000000	-0.039215
577.000000	-0.039435
576.000000	-0.039261
575.000000	-0.039375
574.000000	-0.039410
573.000000	-0.039356
572.000000	-0.039263
571.000000	-0.038991
570.000000	-0.039001
569.000000	-0.038995
568.000000	-0.039057
567.000000	-0.038689
566.000000	-0.039005
565.000000	-0.038972
564.000000	-0.039235
563.000000	-0.038930
562.000000	-0.038834
561.000000	-0.039116
560.000000	-0.039276
559.000000	-0.039138
558.000000	-0.039251
557.000000	-0.039659
556.000000	-0.039321
555.000000	-0.038948
554.000000	-0.038829
553.000000	-0.039370
552.000000	-0.038535
551.000000	-0.039318
550.000000	-0.038676
549.000000	-0.038731
548.000000	-0.038884
547.000000	-0.038650
546.000000	-0.038743
545.000000	-0.038613
544.000000	-0.038641
543.000000	-0.038638
542.000000	-0.038398
541.000000	-0.038370
540.000000	-0.038100
539.000000	-0.038170
538.000000	-0.038318
537.000000	-0.038101
536.000000	-0.037917
535.000000	-0.037915
534.000000	-0.037981
533.000000	-0.037738
532.000000	-0.037516
531.000000	-0.037233
530.000000	-0.037177
529.000000	-0.036770
528.000000	-0.036932
527.000000	-0.036956
526.000000	-0.037018
525.000000	-0.036600
524.000000	-0.036369
523.000000	-0.035853
522.000000	-0.036058
521.000000	-0.035895
520.000000	-0.035801
519.000000	-0.035449
518.000000	-0.035198
517.000000	-0.035064
516.000000	-0.035416
515.000000	-0.035050
514.000000	-0.035319
513.000000	-0.035394
512.000000	-0.035157
511.000000	-0.034606
510.000000	-0.034306
509.000000	-0.034554
508.000000	-0.034531
507.000000	-0.034700
506.000000	-0.034810
505.000000	-0.034696
504.000000	-0.034242
503.000000	-0.034180
502.000000	-0.034602
501.000000	-0.034739
500.000000	-0.034655
499.000000	-0.034241
498.000000	-0.034369
497.000000	-0.034234
496.000000	-0.034615
495.000000	-0.034092
494.000000	-0.033883
493.000000	-0.034104
492.000000	-0.034249
491.000000	-0.034008
490.000000	-0.033861
489.000000	-0.034025
488.000000	-0.033343
487.000000	-0.033445
486.000000	-0.033477
485.000000	-0.033256
484.000000	-0.033083
483.000000	-0.032928
482.000000	-0.032851
481.000000	-0.032158
480.000000	-0.032002
479.000000	-0.031588
478.000000	-0.031646
477.000000	-0.031450
476.000000	-0.031495
475.000000	-0.031347
474.000000	-0.031421
473.000000	-0.031169
472.000000	-0.030516
471.000000	-0.030172
470.000000	-0.030277
469.000000	-0.030433
468.000000	-0.030425
467.000000	-0.030529
466.000000	-0.030467
465.000000	-0.030087
464.000000	-0.030027
463.000000	-0.029886
462.000000	-0.029662
461.000000	-0.029848
460.000000	-0.029872
459.000000	-0.029637
458.000000	-0.029345
457.000000	-0.029131
456.000000	-0.029020
455.000000	-0.028727
454.000000	-0.029026
453.000000	-0.028484
452.000000	-0.028302
451.000000	-0.028107
450.000000	-0.027810
449.000000	-0.027251
448.000000	-0.027500
447.000000	-0.027641
446.000000	-0.027225
445.000000	-0.026945
444.000000	-0.026475
443.000000	-0.026635
442.000000	-0.026415
441.000000	-0.025754
440.000000	-0.025210
439.000000	-0.024750
438.000000	-0.024789
437.000000	-0.024622
436.000000	-0.024209
435.000000	-0.023882
434.000000	-0.023952
433.000000	-0.023705
432.000000	-0.023359
431.000000	-0.023336
430.000000	-0.023065
429.000000	-0.022757
428.000000	-0.022586
427.000000	-0.022173
426.000000	-0.022012
425.000000	-0.021794
424.000000	-0.021287
423.000000	-0.021285
422.000000	-0.021286
421.000000	-0.020728
420.000000	-0.019932
419.000000	-0.019692
418.000000	-0.019673
417.000000	-0.019088
416.000000	-0.018439
415.000000	-0.018611
414.000000	-0.018114
413.000000	-0.017736
412.000000	-0.017517
411.000000	-0.016992
410.000000	-0.016885
409.000000	-0.016606
408.000000	-0.016547
407.000000	-0.015987
406.000000	-0.015306
405.000000	-0.015272
404.000000	-0.015053
403.000000	-0.014497
402.000000	-0.014003
401.000000	-0.013647
400.000000	-0.013132
399.000000	-0.012973
398.000000	-0.012805
397.000000	-0.012537
396.000000	-0.011547
395.000000	-0.010768
394.000000	-0.010688
393.000000	-0.010556
392.000000	-0.009861
391.000000	-0.009731
390.000000	-0.009494
389.000000	-0.008772
388.000000	-0.008639
387.000000	-0.008460
386.000000	-0.007979
385.000000	-0.007317
384.000000	-0.007104
383.000000	-0.007104
382.000000	-0.006914
381.000000	-0.006385
380.000000	-0.005217
379.000000	-0.005184
378.000000	-0.007499
377.000000	-0.008897
376.000000	-0.008382
375.000000	-0.008611
374.000000	-0.007066
373.000000	-0.006173
372.000000	-0.006149
371.000000	-0.005653
370.000000	-0.004192
369.000000	-0.004507
368.000000	-0.004572
367.000000	-0.004113
366.000000	-0.003229
365.000000	-0.003008
364.000000	-0.002179
363.000000	-0.002570
362.000000	-0.001365
361.000000	-0.000915
360.000000	-0.001007
359.000000	-0.000527
358.000000	-0.000498
357.000000	0.000770
356.000000	0.000748
355.000000	0.001359
354.000000	0.002199
353.000000	0.002703
352.000000	0.002699
351.000000	0.004064
350.000000	0.006220
349.000000	0.005501
348.000000	0.005386
347.000000	0.004685
346.000000	0.006174
345.000000	0.005890
344.000000	0.005537
343.000000	0.006025
342.000000	0.006223
341.000000	0.008619
340.000000	0.005725
339.000000	0.007055
338.000000	0.009046
337.000000	0.009415
336.000000	0.008341
335.000000	0.008385
334.000000	0.009752
333.000000	0.009926
332.000000	0.011164
331.000000	0.011254
330.000000	0.011418
329.000000	0.013085
328.000000	0.014459
327.000000	0.012907
326.000000	0.012501
325.000000	0.014599
324.000000	0.016135
323.000000	0.014272
322.000000	0.012678
321.000000	0.014764
320.000000	0.015781
319.000000	0.017795
318.000000	0.017560
317.000000	0.017932
316.000000	0.016955
315.000000	0.018046
314.000000	0.018969
313.000000	0.018477
312.000000	0.019797
311.000000	0.019903
310.000000	0.019660
309.000000	0.020154
308.000000	0.018464
307.000000	0.020402
306.000000	0.020159
305.000000	0.020115
304.000000	0.020607
303.000000	0.023366
302.000000	0.020743
301.000000	0.021477
300.000000	0.023039
