PE UV       SUBTECH     SPECTRUM    ASCII       PEDS        4.00        
   -1
PETIT_51.Sample.Raw.asc
20/12/15
11:28:27.00
20/12/15
11:28:27.00
CNRS
Blanc04
300.000000
1
Lambda 850
850L1011221
PerkinElmer UV WinLab 6.0.3.0730 / 1.61.00 Lambda 800

0
0
2
0
0
UV/VIS
1
1
1
RBeamAtt,SBeamAtt,150mm sphere / downward view
0
0
0
0
Fix
 
0
0.2
0
0
0
 
 
 
0
 
0
319.2
0
Front
50
 
S:100 R:100
 
0
0
0
 
0
 
 
 
0
 
 
0
0
0
0
0
 
 
 
 
0
0


#HDR
-1
-1
#GR
nm
A
1.0
0.0
800.000000
-1.000000
501
8
0.011258
-0.023810
#DATA
800.000000	-0.014157
799.000000	-0.012820
798.000000	-0.014320
797.000000	-0.013672
796.000000	-0.013922
795.000000	-0.017244
794.000000	-0.015418
793.000000	-0.014732
792.000000	-0.013097
791.000000	-0.013166
790.000000	-0.014467
789.000000	-0.014329
788.000000	-0.014187
787.000000	-0.013176
786.000000	-0.014934
785.000000	-0.014463
784.000000	-0.013206
783.000000	-0.014245
782.000000	-0.012576
781.000000	-0.013414
780.000000	-0.014412
779.000000	-0.014715
778.000000	-0.014912
777.000000	-0.015199
776.000000	-0.014145
775.000000	-0.013546
774.000000	-0.012726
773.000000	-0.014225
772.000000	-0.013769
771.000000	-0.012944
770.000000	-0.013882
769.000000	-0.012987
768.000000	-0.014019
767.000000	-0.013002
766.000000	-0.013387
765.000000	-0.012896
764.000000	-0.014658
763.000000	-0.013649
762.000000	-0.013179
761.000000	-0.014516
760.000000	-0.014985
759.000000	-0.014430
758.000000	-0.014586
757.000000	-0.014009
756.000000	-0.013745
755.000000	-0.013439
754.000000	-0.014655
753.000000	-0.014749
752.000000	-0.014043
751.000000	-0.013977
750.000000	-0.013704
749.000000	-0.012889
748.000000	-0.013210
747.000000	-0.013937
746.000000	-0.014360
745.000000	-0.014623
744.000000	-0.014866
743.000000	-0.013734
742.000000	-0.013887
741.000000	-0.014365
740.000000	-0.013623
739.000000	-0.014628
738.000000	-0.014424
737.000000	-0.014233
736.000000	-0.013985
735.000000	-0.013820
734.000000	-0.014079
733.000000	-0.014804
732.000000	-0.015690
731.000000	-0.015227
730.000000	-0.014921
729.000000	-0.014967
728.000000	-0.014723
727.000000	-0.014737
726.000000	-0.015035
725.000000	-0.014805
724.000000	-0.014894
723.000000	-0.015497
722.000000	-0.014945
721.000000	-0.014981
720.000000	-0.015520
719.000000	-0.015882
718.000000	-0.015561
717.000000	-0.015582
716.000000	-0.015463
715.000000	-0.015435
714.000000	-0.014923
713.000000	-0.015247
712.000000	-0.014878
711.000000	-0.014832
710.000000	-0.015223
709.000000	-0.015123
708.000000	-0.015564
707.000000	-0.015511
706.000000	-0.015132
705.000000	-0.015536
704.000000	-0.015429
703.000000	-0.015119
702.000000	-0.015079
701.000000	-0.015601
700.000000	-0.015781
699.000000	-0.015578
698.000000	-0.015506
697.000000	-0.015212
696.000000	-0.015216
695.000000	-0.015167
694.000000	-0.015547
693.000000	-0.015475
692.000000	-0.014757
691.000000	-0.015050
690.000000	-0.015170
689.000000	-0.014864
688.000000	-0.014798
687.000000	-0.015043
686.000000	-0.015078
685.000000	-0.014648
684.000000	-0.014611
683.000000	-0.014949
682.000000	-0.014737
681.000000	-0.014722
680.000000	-0.015169
679.000000	-0.014959
678.000000	-0.014585
677.000000	-0.014739
676.000000	-0.014485
675.000000	-0.014438
674.000000	-0.014931
673.000000	-0.014776
672.000000	-0.014742
671.000000	-0.014914
670.000000	-0.014931
669.000000	-0.015033
668.000000	-0.015114
667.000000	-0.015127
666.000000	-0.015021
665.000000	-0.015189
664.000000	-0.015429
663.000000	-0.015553
662.000000	-0.015364
661.000000	-0.015312
660.000000	-0.015304
659.000000	-0.015037
658.000000	-0.014885
657.000000	-0.014969
656.000000	-0.015276
655.000000	-0.015467
654.000000	-0.015609
653.000000	-0.015447
652.000000	-0.015087
651.000000	-0.015432
650.000000	-0.015635
649.000000	-0.015597
648.000000	-0.015496
647.000000	-0.015539
646.000000	-0.015385
645.000000	-0.015581
644.000000	-0.015272
643.000000	-0.015178
642.000000	-0.015675
641.000000	-0.015714
640.000000	-0.014698
639.000000	-0.015078
638.000000	-0.015108
637.000000	-0.014517
636.000000	-0.014883
635.000000	-0.015521
634.000000	-0.015641
633.000000	-0.015173
632.000000	-0.015277
631.000000	-0.015665
630.000000	-0.015096
629.000000	-0.015620
628.000000	-0.015894
627.000000	-0.015347
626.000000	-0.015433
625.000000	-0.015567
624.000000	-0.015850
623.000000	-0.015599
622.000000	-0.015425
621.000000	-0.015305
620.000000	-0.015150
619.000000	-0.015633
618.000000	-0.015794
617.000000	-0.015729
616.000000	-0.015402
615.000000	-0.015664
614.000000	-0.015368
613.000000	-0.015301
612.000000	-0.015534
611.000000	-0.015944
610.000000	-0.015593
609.000000	-0.015417
608.000000	-0.015259
607.000000	-0.015472
606.000000	-0.015270
605.000000	-0.015052
604.000000	-0.015553
603.000000	-0.015570
602.000000	-0.015786
601.000000	-0.015484
600.000000	-0.015571
599.000000	-0.015407
598.000000	-0.015755
597.000000	-0.015902
596.000000	-0.015790
595.000000	-0.015601
594.000000	-0.015357
593.000000	-0.015758
592.000000	-0.015692
591.000000	-0.015107
590.000000	-0.015408
589.000000	-0.015909
588.000000	-0.016025
587.000000	-0.015465
586.000000	-0.015963
585.000000	-0.015315
584.000000	-0.015448
583.000000	-0.015879
582.000000	-0.015997
581.000000	-0.016358
580.000000	-0.015880
579.000000	-0.015771
578.000000	-0.015987
577.000000	-0.016155
576.000000	-0.016080
575.000000	-0.015800
574.000000	-0.015545
573.000000	-0.015764
572.000000	-0.015700
571.000000	-0.015765
570.000000	-0.016017
569.000000	-0.015848
568.000000	-0.015727
567.000000	-0.016026
566.000000	-0.015664
565.000000	-0.015842
564.000000	-0.015486
563.000000	-0.015881
562.000000	-0.015638
561.000000	-0.015463
560.000000	-0.015389
559.000000	-0.015501
558.000000	-0.015244
557.000000	-0.014765
556.000000	-0.015165
555.000000	-0.015589
554.000000	-0.015506
553.000000	-0.014844
552.000000	-0.015196
551.000000	-0.015060
550.000000	-0.015596
549.000000	-0.015804
548.000000	-0.015065
547.000000	-0.015270
546.000000	-0.015090
545.000000	-0.015126
544.000000	-0.015212
543.000000	-0.015353
542.000000	-0.015474
541.000000	-0.014889
540.000000	-0.015336
539.000000	-0.015218
538.000000	-0.014967
537.000000	-0.015251
536.000000	-0.015324
535.000000	-0.015274
534.000000	-0.014869
533.000000	-0.015140
532.000000	-0.015185
531.000000	-0.015481
530.000000	-0.015607
529.000000	-0.015424
528.000000	-0.015075
527.000000	-0.014994
526.000000	-0.014823
525.000000	-0.015289
524.000000	-0.015238
523.000000	-0.015844
522.000000	-0.015368
521.000000	-0.015628
520.000000	-0.015442
519.000000	-0.015688
518.000000	-0.015712
517.000000	-0.015628
516.000000	-0.015042
515.000000	-0.015960
514.000000	-0.015304
513.000000	-0.014733
512.000000	-0.014759
511.000000	-0.015289
510.000000	-0.015640
509.000000	-0.015392
508.000000	-0.015309
507.000000	-0.015091
506.000000	-0.014699
505.000000	-0.015338
504.000000	-0.015384
503.000000	-0.015252
502.000000	-0.014902
501.000000	-0.014643
500.000000	-0.014434
499.000000	-0.014721
498.000000	-0.014940
497.000000	-0.014838
496.000000	-0.014857
495.000000	-0.015094
494.000000	-0.015080
493.000000	-0.014513
492.000000	-0.014143
491.000000	-0.014701
490.000000	-0.014594
489.000000	-0.013941
488.000000	-0.014821
487.000000	-0.014572
486.000000	-0.014420
485.000000	-0.014412
484.000000	-0.014534
483.000000	-0.014394
482.000000	-0.014658
481.000000	-0.014872
480.000000	-0.014546
479.000000	-0.015010
478.000000	-0.015166
477.000000	-0.015120
476.000000	-0.014928
475.000000	-0.014853
474.000000	-0.014585
473.000000	-0.014647
472.000000	-0.015317
471.000000	-0.015910
470.000000	-0.015478
469.000000	-0.015202
468.000000	-0.015296
467.000000	-0.015272
466.000000	-0.015240
465.000000	-0.015500
464.000000	-0.015558
463.000000	-0.015283
462.000000	-0.015574
461.000000	-0.015399
460.000000	-0.015265
459.000000	-0.015071
458.000000	-0.015125
457.000000	-0.015157
456.000000	-0.014864
455.000000	-0.015338
454.000000	-0.015018
453.000000	-0.015122
452.000000	-0.014848
451.000000	-0.015042
450.000000	-0.015578
449.000000	-0.015763
448.000000	-0.015093
447.000000	-0.014897
446.000000	-0.015221
445.000000	-0.015136
444.000000	-0.015682
443.000000	-0.015057
442.000000	-0.014994
441.000000	-0.015534
440.000000	-0.015347
439.000000	-0.015355
438.000000	-0.015378
437.000000	-0.015515
436.000000	-0.015955
435.000000	-0.015731
434.000000	-0.015171
433.000000	-0.015359
432.000000	-0.015414
431.000000	-0.015252
430.000000	-0.015493
429.000000	-0.015307
428.000000	-0.015134
427.000000	-0.015635
426.000000	-0.015448
425.000000	-0.015328
424.000000	-0.015852
423.000000	-0.015778
422.000000	-0.015404
421.000000	-0.015531
420.000000	-0.016137
419.000000	-0.016422
418.000000	-0.016297
417.000000	-0.016619
416.000000	-0.016766
415.000000	-0.015899
414.000000	-0.016149
413.000000	-0.016357
412.000000	-0.016835
411.000000	-0.017278
410.000000	-0.016865
409.000000	-0.016820
408.000000	-0.016445
407.000000	-0.016711
406.000000	-0.017371
405.000000	-0.017201
404.000000	-0.016491
403.000000	-0.016551
402.000000	-0.017208
401.000000	-0.017507
400.000000	-0.017626
399.000000	-0.017439
398.000000	-0.017894
397.000000	-0.017317
396.000000	-0.017148
395.000000	-0.017933
394.000000	-0.018075
393.000000	-0.017711
392.000000	-0.018570
391.000000	-0.018454
390.000000	-0.017902
389.000000	-0.018310
388.000000	-0.018166
387.000000	-0.017939
386.000000	-0.018473
385.000000	-0.018861
384.000000	-0.018794
383.000000	-0.018399
382.000000	-0.017720
381.000000	-0.018213
380.000000	-0.019185
379.000000	-0.018730
378.000000	-0.017399
377.000000	-0.018448
376.000000	-0.018299
375.000000	-0.017429
374.000000	-0.018980
373.000000	-0.019509
372.000000	-0.018985
371.000000	-0.017824
370.000000	-0.018903
369.000000	-0.019026
368.000000	-0.018857
367.000000	-0.019857
366.000000	-0.019777
365.000000	-0.018733
364.000000	-0.020310
363.000000	-0.020780
362.000000	-0.020475
361.000000	-0.019773
360.000000	-0.020215
359.000000	-0.020019
358.000000	-0.019826
357.000000	-0.020188
356.000000	-0.021290
355.000000	-0.020476
354.000000	-0.021760
353.000000	-0.021239
352.000000	-0.022482
351.000000	-0.022354
350.000000	-0.023810
349.000000	-0.023351
348.000000	-0.022757
347.000000	-0.022942
346.000000	-0.023460
345.000000	-0.022650
344.000000	-0.021616
343.000000	-0.023097
342.000000	-0.020590
341.000000	-0.022233
340.000000	-0.018944
339.000000	-0.019985
338.000000	-0.021089
337.000000	-0.022570
336.000000	-0.021801
335.000000	-0.018545
334.000000	-0.017460
333.000000	-0.019443
332.000000	-0.020106
331.000000	-0.019985
330.000000	-0.019867
329.000000	-0.021983
328.000000	-0.021070
327.000000	-0.020997
326.000000	-0.016598
325.000000	-0.018890
324.000000	-0.018732
323.000000	-0.018472
322.000000	-0.012583
321.000000	-0.017316
320.000000	-0.016288
319.000000	-0.016672
318.000000	-0.016263
317.000000	-0.015641
316.000000	-0.013926
315.000000	-0.014798
314.000000	-0.014324
313.000000	-0.010287
312.000000	-0.010842
311.000000	-0.008919
310.000000	-0.008263
309.000000	-0.006144
308.000000	-0.002251
307.000000	-0.003216
306.000000	-0.001060
305.000000	0.001474
304.000000	0.002532
303.000000	0.002985
302.000000	0.005468
301.000000	0.007580
300.000000	0.011258
