PE UV       SUBTECH     SPECTRUM    ASCII       PEDS        4.00        
   -1
PETIT_94.Sample.Raw.asc
20/12/16
12:24:23.00
20/12/16
12:24:23.00
CNRS
Blanc05
300.000000
1
Lambda 850
850L1011221
PerkinElmer UV WinLab 6.0.3.0730 / 1.61.00 Lambda 800

0
0
2
0
0
UV/VIS
1
1
1
RBeamAtt,SBeamAtt,150mm sphere / downward view
0
0
0
0
Fix
 
0
0.2
0
0
0
 
 
 
0
 
0
319.2
0
Front
50
 
S:100 R:100
 
0
0
0
 
0
 
 
 
0
 
 
0
0
0
0
0
 
 
 
 
0
0


#HDR
-1
-1
#GR
nm
A
1.0
0.0
800.000000
-1.000000
501
8
0.011237
-0.023284
#DATA
800.000000	-0.013530
799.000000	-0.014436
798.000000	-0.015562
797.000000	-0.013550
796.000000	-0.013968
795.000000	-0.013990
794.000000	-0.014652
793.000000	-0.013615
792.000000	-0.014591
791.000000	-0.013326
790.000000	-0.013999
789.000000	-0.014662
788.000000	-0.014455
787.000000	-0.013230
786.000000	-0.013378
785.000000	-0.014390
784.000000	-0.013215
783.000000	-0.014156
782.000000	-0.014245
781.000000	-0.014742
780.000000	-0.013797
779.000000	-0.013886
778.000000	-0.014348
777.000000	-0.012528
776.000000	-0.013166
775.000000	-0.013809
774.000000	-0.013471
773.000000	-0.013920
772.000000	-0.014110
771.000000	-0.013431
770.000000	-0.014555
769.000000	-0.013546
768.000000	-0.014650
767.000000	-0.013779
766.000000	-0.014322
765.000000	-0.013977
764.000000	-0.014183
763.000000	-0.013648
762.000000	-0.013638
761.000000	-0.013719
760.000000	-0.014038
759.000000	-0.014394
758.000000	-0.013287
757.000000	-0.012390
756.000000	-0.013852
755.000000	-0.014456
754.000000	-0.013658
753.000000	-0.013479
752.000000	-0.013441
751.000000	-0.014118
750.000000	-0.014520
749.000000	-0.012662
748.000000	-0.013992
747.000000	-0.013831
746.000000	-0.014234
745.000000	-0.014850
744.000000	-0.013743
743.000000	-0.013867
742.000000	-0.013264
741.000000	-0.013971
740.000000	-0.014037
739.000000	-0.014521
738.000000	-0.014108
737.000000	-0.013895
736.000000	-0.014955
735.000000	-0.013602
734.000000	-0.014743
733.000000	-0.015160
732.000000	-0.014303
731.000000	-0.014217
730.000000	-0.015019
729.000000	-0.015708
728.000000	-0.015117
727.000000	-0.014662
726.000000	-0.015214
725.000000	-0.014482
724.000000	-0.014271
723.000000	-0.014704
722.000000	-0.014747
721.000000	-0.015044
720.000000	-0.015600
719.000000	-0.015031
718.000000	-0.014777
717.000000	-0.015294
716.000000	-0.015392
715.000000	-0.015401
714.000000	-0.015063
713.000000	-0.015132
712.000000	-0.015223
711.000000	-0.015174
710.000000	-0.015657
709.000000	-0.015204
708.000000	-0.015467
707.000000	-0.016092
706.000000	-0.014952
705.000000	-0.014960
704.000000	-0.015559
703.000000	-0.015368
702.000000	-0.014933
701.000000	-0.014814
700.000000	-0.014993
699.000000	-0.015468
698.000000	-0.015689
697.000000	-0.015910
696.000000	-0.015633
695.000000	-0.014805
694.000000	-0.015008
693.000000	-0.015460
692.000000	-0.015152
691.000000	-0.014903
690.000000	-0.015009
689.000000	-0.015260
688.000000	-0.015392
687.000000	-0.014812
686.000000	-0.014925
685.000000	-0.014814
684.000000	-0.014839
683.000000	-0.014732
682.000000	-0.014612
681.000000	-0.014994
680.000000	-0.015063
679.000000	-0.015086
678.000000	-0.015161
677.000000	-0.014920
676.000000	-0.014474
675.000000	-0.014398
674.000000	-0.014439
673.000000	-0.014484
672.000000	-0.014728
671.000000	-0.014820
670.000000	-0.014825
669.000000	-0.014656
668.000000	-0.015097
667.000000	-0.015259
666.000000	-0.015064
665.000000	-0.015078
664.000000	-0.015055
663.000000	-0.015033
662.000000	-0.014986
661.000000	-0.014636
660.000000	-0.014967
659.000000	-0.015207
658.000000	-0.015084
657.000000	-0.015154
656.000000	-0.015393
655.000000	-0.015166
654.000000	-0.015218
653.000000	-0.015033
652.000000	-0.014822
651.000000	-0.015343
650.000000	-0.015588
649.000000	-0.015328
648.000000	-0.015185
647.000000	-0.015904
646.000000	-0.016103
645.000000	-0.015804
644.000000	-0.015591
643.000000	-0.015183
642.000000	-0.015304
641.000000	-0.015024
640.000000	-0.015037
639.000000	-0.015324
638.000000	-0.015256
637.000000	-0.015160
636.000000	-0.015456
635.000000	-0.015482
634.000000	-0.015422
633.000000	-0.014721
632.000000	-0.015134
631.000000	-0.015997
630.000000	-0.015347
629.000000	-0.014744
628.000000	-0.015232
627.000000	-0.015052
626.000000	-0.015643
625.000000	-0.015594
624.000000	-0.015960
623.000000	-0.016018
622.000000	-0.015805
621.000000	-0.014843
620.000000	-0.015142
619.000000	-0.015331
618.000000	-0.015695
617.000000	-0.015468
616.000000	-0.015624
615.000000	-0.015750
614.000000	-0.015654
613.000000	-0.015373
612.000000	-0.015446
611.000000	-0.015179
610.000000	-0.015272
609.000000	-0.015697
608.000000	-0.015694
607.000000	-0.015620
606.000000	-0.015233
605.000000	-0.015535
604.000000	-0.015809
603.000000	-0.015158
602.000000	-0.015285
601.000000	-0.015262
600.000000	-0.015720
599.000000	-0.015704
598.000000	-0.015818
597.000000	-0.015950
596.000000	-0.015770
595.000000	-0.015488
594.000000	-0.015693
593.000000	-0.015707
592.000000	-0.015954
591.000000	-0.015666
590.000000	-0.015623
589.000000	-0.015341
588.000000	-0.015673
587.000000	-0.015807
586.000000	-0.015423
585.000000	-0.015483
584.000000	-0.015877
583.000000	-0.015630
582.000000	-0.015424
581.000000	-0.015945
580.000000	-0.015653
579.000000	-0.015675
578.000000	-0.015770
577.000000	-0.015659
576.000000	-0.015782
575.000000	-0.015667
574.000000	-0.015650
573.000000	-0.015634
572.000000	-0.015428
571.000000	-0.015596
570.000000	-0.015509
569.000000	-0.015749
568.000000	-0.016080
567.000000	-0.015441
566.000000	-0.015627
565.000000	-0.015461
564.000000	-0.015534
563.000000	-0.015486
562.000000	-0.015747
561.000000	-0.015347
560.000000	-0.015101
559.000000	-0.015186
558.000000	-0.015201
557.000000	-0.015497
556.000000	-0.015523
555.000000	-0.015710
554.000000	-0.014940
553.000000	-0.015165
552.000000	-0.015255
551.000000	-0.014872
550.000000	-0.015788
549.000000	-0.015292
548.000000	-0.015117
547.000000	-0.014922
546.000000	-0.014886
545.000000	-0.015223
544.000000	-0.014745
543.000000	-0.015041
542.000000	-0.014806
541.000000	-0.015176
540.000000	-0.015143
539.000000	-0.015191
538.000000	-0.014980
537.000000	-0.015338
536.000000	-0.014736
535.000000	-0.014492
534.000000	-0.015147
533.000000	-0.015157
532.000000	-0.015208
531.000000	-0.014992
530.000000	-0.015322
529.000000	-0.015179
528.000000	-0.015111
527.000000	-0.014918
526.000000	-0.015262
525.000000	-0.015140
524.000000	-0.015164
523.000000	-0.014991
522.000000	-0.015315
521.000000	-0.015032
520.000000	-0.015105
519.000000	-0.015471
518.000000	-0.015176
517.000000	-0.014868
516.000000	-0.014962
515.000000	-0.014910
514.000000	-0.014886
513.000000	-0.015017
512.000000	-0.014861
511.000000	-0.015058
510.000000	-0.014561
509.000000	-0.014591
508.000000	-0.015232
507.000000	-0.015007
506.000000	-0.014894
505.000000	-0.015175
504.000000	-0.014843
503.000000	-0.015096
502.000000	-0.015220
501.000000	-0.014150
500.000000	-0.014586
499.000000	-0.014844
498.000000	-0.015269
497.000000	-0.015056
496.000000	-0.015313
495.000000	-0.014093
494.000000	-0.013921
493.000000	-0.014437
492.000000	-0.014768
491.000000	-0.014168
490.000000	-0.014406
489.000000	-0.014238
488.000000	-0.013842
487.000000	-0.013789
486.000000	-0.013846
485.000000	-0.014088
484.000000	-0.014049
483.000000	-0.014308
482.000000	-0.014052
481.000000	-0.014768
480.000000	-0.014628
479.000000	-0.014581
478.000000	-0.014647
477.000000	-0.014736
476.000000	-0.014061
475.000000	-0.014366
474.000000	-0.014894
473.000000	-0.014824
472.000000	-0.015224
471.000000	-0.015022
470.000000	-0.014714
469.000000	-0.014826
468.000000	-0.014673
467.000000	-0.014836
466.000000	-0.015111
465.000000	-0.014833
464.000000	-0.014456
463.000000	-0.014724
462.000000	-0.014859
461.000000	-0.015155
460.000000	-0.015056
459.000000	-0.015221
458.000000	-0.014923
457.000000	-0.015020
456.000000	-0.014446
455.000000	-0.014652
454.000000	-0.015311
453.000000	-0.015077
452.000000	-0.014734
451.000000	-0.014929
450.000000	-0.014871
449.000000	-0.014523
448.000000	-0.014569
447.000000	-0.014652
446.000000	-0.014799
445.000000	-0.015229
444.000000	-0.014677
443.000000	-0.014305
442.000000	-0.014686
441.000000	-0.014592
440.000000	-0.014405
439.000000	-0.015018
438.000000	-0.015079
437.000000	-0.015039
436.000000	-0.015112
435.000000	-0.015060
434.000000	-0.014911
433.000000	-0.015131
432.000000	-0.015304
431.000000	-0.015371
430.000000	-0.015148
429.000000	-0.014695
428.000000	-0.014747
427.000000	-0.015143
426.000000	-0.015158
425.000000	-0.015293
424.000000	-0.015415
423.000000	-0.015524
422.000000	-0.015902
421.000000	-0.016321
420.000000	-0.015846
419.000000	-0.015635
418.000000	-0.016044
417.000000	-0.016118
416.000000	-0.015924
415.000000	-0.016097
414.000000	-0.016182
413.000000	-0.016126
412.000000	-0.016037
411.000000	-0.015455
410.000000	-0.015961
409.000000	-0.016554
408.000000	-0.016348
407.000000	-0.016617
406.000000	-0.016672
405.000000	-0.016589
404.000000	-0.016758
403.000000	-0.017270
402.000000	-0.016440
401.000000	-0.016023
400.000000	-0.016499
399.000000	-0.016620
398.000000	-0.016880
397.000000	-0.017741
396.000000	-0.017414
395.000000	-0.016430
394.000000	-0.016501
393.000000	-0.016744
392.000000	-0.016311
391.000000	-0.017311
390.000000	-0.017620
389.000000	-0.017862
388.000000	-0.018096
387.000000	-0.017677
386.000000	-0.016939
385.000000	-0.018182
384.000000	-0.018833
383.000000	-0.018279
382.000000	-0.017057
381.000000	-0.017074
380.000000	-0.018921
379.000000	-0.017592
378.000000	-0.015761
377.000000	-0.018034
376.000000	-0.017777
375.000000	-0.016813
374.000000	-0.018125
373.000000	-0.017986
372.000000	-0.017864
371.000000	-0.018875
370.000000	-0.019885
369.000000	-0.019460
368.000000	-0.018780
367.000000	-0.018485
366.000000	-0.018246
365.000000	-0.018818
364.000000	-0.019155
363.000000	-0.018603
362.000000	-0.017126
361.000000	-0.019433
360.000000	-0.018401
359.000000	-0.019077
358.000000	-0.020073
357.000000	-0.020041
356.000000	-0.019092
355.000000	-0.017283
354.000000	-0.018989
353.000000	-0.019563
352.000000	-0.017932
351.000000	-0.021425
350.000000	-0.018865
349.000000	-0.019420
348.000000	-0.020673
347.000000	-0.020829
346.000000	-0.021138
345.000000	-0.020811
344.000000	-0.022063
343.000000	-0.023284
342.000000	-0.021776
341.000000	-0.019963
340.000000	-0.019570
339.000000	-0.018737
338.000000	-0.017379
337.000000	-0.019739
336.000000	-0.020638
335.000000	-0.019348
334.000000	-0.021674
333.000000	-0.020835
332.000000	-0.018412
331.000000	-0.018925
330.000000	-0.017955
329.000000	-0.020764
328.000000	-0.018476
327.000000	-0.015749
326.000000	-0.018090
325.000000	-0.019806
324.000000	-0.014746
323.000000	-0.018019
322.000000	-0.015671
321.000000	-0.014993
320.000000	-0.016739
319.000000	-0.014287
318.000000	-0.014544
317.000000	-0.012199
316.000000	-0.013184
315.000000	-0.012298
314.000000	-0.012100
313.000000	-0.008971
312.000000	-0.010103
311.000000	-0.007652
310.000000	-0.005410
309.000000	-0.004608
308.000000	-0.004110
307.000000	-0.001955
306.000000	0.001774
305.000000	0.001184
304.000000	0.005015
303.000000	0.005882
302.000000	0.007983
301.000000	0.010714
300.000000	0.011237
